Model,TBS2104B
Firmware Version,v1.31.16

Point Format,Y,
Horizontal Units,S,
Horizontal Scale,0.0001,
Sample Interval,8e-07,
Filter Frequency,2e+08,
Record Length,2000,
Gating,0.0% to 100.0%,0.0% to 100.0%
Probe Attenuation,1,1
Vertical Units,V,A
Vertical Offset,0,0
Vertical Scale,0.505,0.1
Label,,
TIME,CH1,CH2
-8.000e-04,-0.00520781,-0.0010625
-7.992e-04,-0.00528672,-0.0011875
-7.984e-04,-0.00528672,-0.00107813
-7.976e-04,-0.00662812,-0.00103125
-7.968e-04,-0.00552344,-0.00101563
-7.960e-04,-0.00639141,-0.00104688
-7.952e-04,-0.00497109,-0.0010625
-7.944e-04,-0.00552344,-0.00101563
-7.936e-04,-0.00654922,-0.00107813
-7.928e-04,-0.00536562,-0.00109375
-7.920e-04,-0.00528672,-0.00104688
-7.912e-04,-0.00576016,-0.00107813
-7.904e-04,-0.00599687,-0.0010625
-7.896e-04,-0.00512891,-0.00110938
-7.888e-04,-0.00552344,-0.001
-7.880e-04,-0.00568125,-0.001125
-7.872e-04,-0.00497109,-0.001
-7.864e-04,-0.00544453,-0.0010625
-7.856e-04,-0.0063125,-0.00104688
-7.848e-04,-0.00623359,-0.00104688
-7.840e-04,-0.00702266,-0.00104688
-7.832e-04,-0.00536562,-0.00107813
-7.824e-04,-0.00670703,-0.00107813
-7.816e-04,-0.00536562,-0.00107813
-7.808e-04,-0.00647031,-0.00107813
-7.800e-04,-0.00512891,-0.00107813
-7.792e-04,-0.00536562,-0.00104688
-7.784e-04,-0.00552344,-0.0010625
-7.776e-04,-0.00520781,-0.00103125
-7.768e-04,-0.00528672,-0.0010625
-7.760e-04,-0.00662812,-0.0010625
-7.752e-04,-0.00505,-0.00109375
-7.744e-04,-0.00576016,-0.00104688
-7.736e-04,-0.00544453,-0.001
-7.728e-04,-0.00536562,-0.00109375
-7.720e-04,-0.00623359,-0.00107813
-7.712e-04,-0.00528672,-0.00109375
-7.704e-04,-0.00528672,-0.00109375
-7.696e-04,-0.00694375,-0.00114063
-7.688e-04,-0.00568125,-0.00107813
-7.680e-04,-0.00623359,-0.00109375
-7.672e-04,-0.00512891,-0.00110938
-7.664e-04,-0.00536562,-0.00110938
-7.656e-04,-0.00536562,-0.0010625
-7.648e-04,-0.00615469,-0.00104688
-7.640e-04,-0.00520781,-0.0010625
-7.632e-04,-0.00615469,-0.00104688
-7.624e-04,-0.00583906,-0.0010625
-7.616e-04,-0.00647031,-0.00103125
-7.608e-04,-0.00544453,-0.0010625
-7.600e-04,-0.00528672,-0.0010625
-7.592e-04,-0.00670703,-0.00103125
-7.584e-04,-0.00520781,-0.00107813
-7.576e-04,-0.00583906,-0.0010625
-7.568e-04,-0.00607578,-0.0010625
-7.560e-04,-0.0063125,-0.0010625
-7.552e-04,-0.00576016,-0.00107813
-7.544e-04,-0.00583906,-0.00101563
-7.536e-04,-0.00662812,-0.00107813
-7.528e-04,-0.00536562,-0.0010625
-7.520e-04,-0.00615469,-0.00103125
-7.512e-04,-0.00520781,-0.00107813
-7.504e-04,-0.00599687,-0.00109375
-7.496e-04,-0.00615469,-0.0010625
-7.488e-04,-0.00623359,-0.00101563
-7.480e-04,-0.00528672,-0.00120313
-7.472e-04,-0.00670703,-0.001125
-7.464e-04,-0.00505,-0.0010625
-7.456e-04,-0.00505,-0.00107813
-7.448e-04,-0.00568125,-0.0010625
-7.440e-04,-0.00512891,-0.00104688
-7.432e-04,-0.00647031,-0.00103125
-7.424e-04,-0.00607578,-0.00109375
-7.416e-04,-0.00560234,-0.000984375
-7.408e-04,-0.0063125,-0.00103125
-7.400e-04,-0.00512891,-0.00104688
-7.392e-04,-0.00662812,-0.00101563
-7.384e-04,-0.00662812,-0.00109375
-7.376e-04,-0.00505,-0.00107813
-7.368e-04,-0.00615469,-0.0010625
-7.360e-04,-0.00639141,-0.00103125
-7.352e-04,-0.00568125,-0.00109375
-7.344e-04,-0.00528672,-0.00109375
-7.336e-04,-0.00568125,-0.00104688
-7.328e-04,-0.00528672,-0.00107813
-7.320e-04,-0.00694375,-0.00107813
-7.312e-04,-0.00512891,-0.0010625
-7.304e-04,-0.00512891,-0.0010625
-7.296e-04,-0.00654922,-0.00103125
-7.288e-04,-0.00536562,-0.00110938
-7.280e-04,-0.00505,-0.00110938
-7.272e-04,-0.00615469,-0.00103125
-7.264e-04,-0.00528672,-0.0010625
-7.256e-04,-0.00544453,-0.0010625
-7.248e-04,-0.00512891,-0.0010625
-7.240e-04,-0.00520781,-0.00115625
-7.232e-04,-0.00647031,-0.00107813
-7.224e-04,-0.00615469,-0.001
-7.216e-04,-0.00576016,-0.00109375
-7.208e-04,-0.00576016,-0.00104688
-7.200e-04,-0.00568125,-0.00109375
-7.192e-04,-0.00654922,-0.00104688
-7.184e-04,-0.0063125,-0.00104688
-7.176e-04,-0.00520781,-0.00110938
-7.168e-04,-0.00576016,-0.00103125
-7.160e-04,-0.00615469,-0.0010625
-7.152e-04,-0.00520781,-0.00110938
-7.144e-04,-0.00568125,-0.00109375
-7.136e-04,-0.00560234,-0.00104688
-7.128e-04,-0.00552344,-0.00104688
-7.120e-04,-0.00654922,-0.00107813
-7.112e-04,-0.00654922,-0.00101563
-7.104e-04,-0.00576016,-0.00103125
-7.096e-04,-0.00552344,-0.0010625
-7.088e-04,-0.00544453,-0.0010625
-7.080e-04,-0.00544453,-0.0010625
-7.072e-04,-0.0063125,-0.00104688
-7.064e-04,-0.00552344,-0.00104688
-7.056e-04,-0.00536562,-0.00107813
-7.048e-04,-0.00615469,-0.0010625
-7.040e-04,-0.00647031,-0.00101563
-7.032e-04,-0.00591797,-0.00103125
-7.024e-04,-0.00560234,-0.00101563
-7.016e-04,-0.00512891,-0.00107813
-7.008e-04,-0.00560234,-0.00109375
-7.000e-04,-0.00497109,-0.00110938
-6.992e-04,-0.00536562,-0.00103125
-6.984e-04,-0.00520781,-0.00107813
-6.976e-04,-0.00520781,-0.00101563
-6.968e-04,-0.00662812,-0.00103125
-6.960e-04,-0.00583906,-0.001125
-6.952e-04,-0.00599687,-0.00103125
-6.944e-04,-0.00512891,-0.0010625
-6.936e-04,-0.00583906,-0.001125
-6.928e-04,-0.00528672,-0.0010625
-6.920e-04,-0.00512891,-0.00101563
-6.912e-04,-0.00544453,-0.0010625
-6.904e-04,-0.00568125,-0.00109375
-6.896e-04,-0.00544453,-0.00107813
-6.888e-04,-0.0063125,-0.00103125
-6.880e-04,-0.00647031,-0.00104688
-6.872e-04,-0.00576016,-0.0010625
-6.864e-04,-0.00623359,-0.00109375
-6.856e-04,-0.00623359,-0.00107813
-6.848e-04,-0.00662812,-0.00107813
-6.840e-04,-0.00702266,-0.0010625
-6.832e-04,-0.00505,-0.00110938
-6.824e-04,-0.00505,-0.00104688
-6.816e-04,-0.00544453,-0.00107813
-6.808e-04,-0.00497109,-0.0010625
-6.800e-04,-0.00505,-0.00103125
-6.792e-04,-0.00686484,-0.0010625
-6.784e-04,-0.00576016,-0.00107813
-6.776e-04,-0.00647031,-0.00110938
-6.768e-04,-0.00528672,-0.00109375
-6.760e-04,-0.00560234,-0.00104688
-6.752e-04,-0.00702266,-0.00104688
-6.744e-04,-0.00528672,-0.00104688
-6.736e-04,-0.00536562,-0.0010625
-6.728e-04,-0.00678594,-0.00107813
-6.720e-04,-0.00512891,-0.00104688
-6.712e-04,-0.00583906,-0.00103125
-6.704e-04,-0.00512891,-0.00104688
-6.696e-04,-0.00576016,-0.00104688
-6.688e-04,-0.00544453,-0.00107813
-6.680e-04,-0.00552344,-0.0010625
-6.672e-04,-0.00544453,-0.00101563
-6.664e-04,-0.00528672,-0.0010625
-6.656e-04,-0.00773281,-0.00101563
-6.648e-04,-0.00615469,-0.00104688
-6.640e-04,-0.00536562,-0.00109375
-6.632e-04,-0.00599687,-0.0010625
-6.624e-04,-0.00552344,-0.0010625
-6.616e-04,-0.00615469,-0.00107813
-6.608e-04,-0.00512891,-0.0010625
-6.600e-04,-0.00512891,-0.00107813
-6.592e-04,-0.00544453,-0.00104688
-6.584e-04,-0.00536562,-0.00101563
-6.576e-04,-0.00536562,-0.0010625
-6.568e-04,-0.00552344,-0.0010625
-6.560e-04,-0.00560234,-0.00109375
-6.552e-04,-0.00599687,-0.00107813
-6.544e-04,-0.00583906,-0.001125
-6.536e-04,-0.00654922,-0.00104688
-6.528e-04,-0.00654922,-0.00101563
-6.520e-04,-0.00583906,-0.0010625
-6.512e-04,-0.00520781,-0.00104688
-6.504e-04,-0.00544453,-0.00104688
-6.496e-04,-0.00591797,-0.00104688
-6.488e-04,-0.00583906,-0.0010625
-6.480e-04,-0.00591797,-0.00103125
-6.472e-04,-0.00568125,-0.00101563
-6.464e-04,-0.00670703,-0.00103125
-6.456e-04,-0.00536562,-0.00103125
-6.448e-04,-0.00520781,-0.00107813
-6.440e-04,-0.00552344,-0.0010625
-6.432e-04,-0.0063125,-0.00110938
-6.424e-04,-0.00599687,-0.00103125
-6.416e-04,-0.00576016,-0.00109375
-6.408e-04,-0.00576016,-0.0010625
-6.400e-04,-0.00599687,-0.00103125
-6.392e-04,-0.00560234,-0.00103125
-6.384e-04,-0.00639141,-0.0010625
-6.376e-04,-0.00520781,-0.00103125
-6.368e-04,-0.00607578,-0.00104688
-6.360e-04,-0.00670703,-0.00109375
-6.352e-04,-0.00497109,-0.00107813
-6.344e-04,-0.00528672,-0.00103125
-6.336e-04,-0.00654922,-0.00109375
-6.328e-04,-0.00749609,-0.001
-6.320e-04,-0.00544453,-0.0010625
-6.312e-04,-0.00552344,-0.00107813
-6.304e-04,-0.00520781,-0.00107813
-6.296e-04,-0.00520781,-0.00104688
-6.288e-04,-0.00505,-0.00107813
-6.280e-04,-0.00560234,-0.00110938
-6.272e-04,-0.00528672,-0.00104688
-6.264e-04,-0.00512891,-0.00107813
-6.256e-04,-0.00520781,-0.00107813
-6.248e-04,-0.00512891,-0.00104688
-6.240e-04,-0.00544453,-0.00107813
-6.232e-04,-0.00615469,-0.001125
-6.224e-04,-0.00520781,-0.00107813
-6.216e-04,-0.00694375,-0.00104688
-6.208e-04,-0.00544453,-0.00104688
-6.200e-04,-0.00654922,-0.00109375
-6.192e-04,-0.00639141,-0.00101563
-6.184e-04,-0.00520781,-0.00107813
-6.176e-04,-0.00520781,-0.00104688
-6.168e-04,-0.00497109,-0.00103125
-6.160e-04,-0.00528672,-0.00101563
-6.152e-04,-0.00544453,-0.00104688
-6.144e-04,-0.00505,-0.00107813
-6.136e-04,-0.00544453,-0.00107813
-6.128e-04,-0.00552344,-0.0010625
-6.120e-04,-0.00647031,-0.00107813
-6.112e-04,-0.00552344,-0.00107813
-6.104e-04,-0.00505,-0.00109375
-6.096e-04,-0.00576016,-0.0010625
-6.088e-04,-0.00576016,-0.00104688
-6.080e-04,-0.00552344,-0.00107813
-6.072e-04,-0.00662812,-0.00109375
-6.064e-04,-0.00615469,-0.00104688
-6.056e-04,-0.00599687,-0.00104688
-6.048e-04,-0.00536562,-0.00103125
-6.040e-04,-0.00497109,-0.00107813
-6.032e-04,-0.00615469,-0.00104688
-6.024e-04,-0.00654922,-0.001125
-6.016e-04,-0.00512891,-0.00101563
-6.008e-04,-0.00505,-0.00107813
-6.000e-04,-0.00647031,-0.00110938
-5.992e-04,-0.00576016,-0.00104688
-5.984e-04,-0.00528672,-0.00103125
-5.976e-04,-0.00528672,-0.001
-5.968e-04,-0.00505,-0.00104688
-5.960e-04,-0.00497109,-0.0010625
-5.952e-04,-0.00552344,-0.00107813
-5.944e-04,-0.00662812,-0.00103125
-5.936e-04,-0.00505,-0.00107813
-5.928e-04,-0.00512891,-0.00107813
-5.920e-04,-0.00528672,-0.0010625
-5.912e-04,-0.00591797,-0.0010625
-5.904e-04,-0.00497109,-0.00104688
-5.896e-04,-0.00505,-0.00104688
-5.888e-04,-0.00583906,-0.00104688
-5.880e-04,-0.00599687,-0.00107813
-5.872e-04,-0.00607578,-0.00103125
-5.864e-04,-0.00528672,-0.00103125
-5.856e-04,-0.00544453,-0.0010625
-5.848e-04,-0.0063125,-0.00104688
-5.840e-04,-0.00520781,-0.00107813
-5.832e-04,-0.00576016,-0.00104688
-5.824e-04,-0.00591797,-0.00101563
-5.816e-04,-0.00505,-0.00101563
-5.808e-04,-0.00544453,-0.00104688
-5.800e-04,-0.00528672,-0.00104688
-5.792e-04,-0.00536562,-0.000984375
-5.784e-04,-0.00528672,-0.00107813
-5.776e-04,-0.00607578,-0.00104688
-5.768e-04,-0.00583906,-0.00109375
-5.760e-04,-0.00552344,-0.00110938
-5.752e-04,-0.00615469,-0.00104688
-5.744e-04,-0.00694375,-0.00103125
-5.736e-04,-0.00560234,-0.00103125
-5.728e-04,-0.00852187,-0.00103125
-5.720e-04,-0.00662812,-0.00107813
-5.712e-04,-0.00670703,-0.00109375
-5.704e-04,-0.00694375,-0.0010625
-5.696e-04,-0.00544453,-0.00104688
-5.688e-04,-0.00654922,-0.001125
-5.680e-04,-0.00512891,-0.00109375
-5.672e-04,-0.00520781,-0.00104688
-5.664e-04,-0.00528672,-0.00107813
-5.656e-04,-0.00520781,-0.00109375
-5.648e-04,-0.00520781,-0.0010625
-5.640e-04,-0.00694375,-0.0010625
-5.632e-04,-0.00528672,-0.00103125
-5.624e-04,-0.00544453,-0.0010625
-5.616e-04,-0.00568125,-0.00107813
-5.608e-04,-0.00576016,-0.0010625
-5.600e-04,-0.00560234,-0.00104688
-5.592e-04,-0.00544453,-0.0010625
-5.584e-04,-0.00497109,-0.00110938
-5.576e-04,-0.00552344,-0.00121875
-5.568e-04,-0.00568125,-0.00101563
-5.560e-04,-0.00552344,-0.00104688
-5.552e-04,-0.00520781,-0.00107813
-5.544e-04,-0.0063125,-0.00114063
-5.536e-04,-0.00552344,-0.0010625
-5.528e-04,-0.00544453,-0.00103125
-5.520e-04,-0.00512891,-0.00104688
-5.512e-04,-0.00583906,-0.00103125
-5.504e-04,-0.00591797,-0.00109375
-5.496e-04,-0.00654922,-0.00107813
-5.488e-04,-0.00528672,-0.00114063
-5.480e-04,-0.00583906,-0.00110938
-5.472e-04,-0.00560234,-0.00104688
-5.464e-04,-0.00710156,-0.0010625
-5.456e-04,-0.00552344,-0.00110938
-5.448e-04,-0.00536562,-0.00120313
-5.440e-04,-0.00520781,-0.00109375
-5.432e-04,-0.00599687,-0.00109375
-5.424e-04,-0.00591797,-0.00110938
-5.416e-04,-0.00639141,-0.00104688
-5.408e-04,-0.00512891,-0.0010625
-5.400e-04,-0.00505,-0.00110938
-5.392e-04,-0.00560234,-0.0010625
-5.384e-04,-0.00560234,-0.00107813
-5.376e-04,-0.00520781,-0.00110938
-5.368e-04,-0.00591797,-0.00107813
-5.360e-04,-0.00647031,-0.00101563
-5.352e-04,-0.00623359,-0.0010625
-5.344e-04,-0.00536562,-0.00104688
-5.336e-04,-0.00536562,-0.00107813
-5.328e-04,-0.00607578,-0.00101563
-5.320e-04,-0.00583906,-0.00110938
-5.312e-04,-0.00615469,-0.00107813
-5.304e-04,-0.00560234,-0.00107813
-5.296e-04,-0.00528672,-0.001
-5.288e-04,-0.00505,-0.00107813
-5.280e-04,-0.00583906,-0.00110938
-5.272e-04,-0.00536562,-0.00103125
-5.264e-04,-0.00615469,-0.00103125
-5.256e-04,-0.00741719,-0.00103125
-5.248e-04,-0.00536562,-0.00103125
-5.240e-04,-0.00654922,-0.00109375
-5.232e-04,-0.00576016,-0.00107813
-5.224e-04,-0.00654922,-0.00114063
-5.216e-04,-0.00560234,-0.00107813
-5.208e-04,-0.00576016,-0.00110938
-5.200e-04,-0.00639141,-0.00101563
-5.192e-04,-0.00591797,-0.00107813
-5.184e-04,-0.00607578,-0.0010625
-5.176e-04,-0.00544453,-0.00110938
-5.168e-04,-0.00560234,-0.00110938
-5.160e-04,-0.00662812,-0.0010625
-5.152e-04,-0.00599687,-0.000984375
-5.144e-04,-0.00718047,-0.00104688
-5.136e-04,-0.00560234,-0.00103125
-5.128e-04,-0.00536562,-0.00109375
-5.120e-04,-0.00536562,-0.00101563
-5.112e-04,-0.00576016,-0.0010625
-5.104e-04,-0.00552344,-0.00104688
-5.096e-04,-0.00654922,-0.00104688
-5.088e-04,-0.00686484,-0.00109375
-5.080e-04,-0.00512891,-0.00101563
-5.072e-04,-0.00647031,-0.00109375
-5.064e-04,-0.00568125,-0.0010625
-5.056e-04,-0.00623359,-0.00103125
-5.048e-04,-0.00528672,-0.00107813
-5.040e-04,-0.0063125,-0.00107813
-5.032e-04,-0.00536562,-0.001125
-5.024e-04,-0.0150711,-0.00120313
-5.016e-04,-0.0417414,-0.003125
-5.008e-04,-0.0497109,-0.007125
-5.000e-04,-0.0519203,-0.0105
-4.992e-04,-0.0525516,-0.0116406
-4.984e-04,-0.0510523,-0.0110938
-4.976e-04,-0.0511312,-0.0105781
-4.968e-04,-0.0514469,-0.010375
-4.960e-04,-0.0511312,-0.0102813
-4.952e-04,-0.051368,-0.0103438
-4.944e-04,-0.052157,-0.0104063
-4.936e-04,-0.0523937,-0.010375
-4.928e-04,-0.0531828,-0.010375
-4.920e-04,-0.052157,-0.0105625
-4.912e-04,-0.0531039,-0.0104063
-4.904e-04,-0.0519203,-0.0103906
-4.896e-04,-0.0528672,-0.0104531
-4.888e-04,-0.053025,-0.0103594
-4.880e-04,-0.0527883,-0.0105781
-4.872e-04,-0.0531828,-0.0104063
-4.864e-04,-0.0532617,-0.0104531
-4.856e-04,-0.0527094,-0.0105938
-4.848e-04,-0.0529461,-0.0104375
-4.840e-04,-0.0534195,-0.0103594
-4.832e-04,-0.0528672,-0.0105
-4.824e-04,-0.0534195,-0.0104531
-4.816e-04,-0.0534195,-0.0105938
-4.808e-04,-0.0531039,-0.0104688
-4.800e-04,-0.0538141,-0.0105781
-4.792e-04,-0.0545242,-0.0105156
-4.784e-04,-0.0537352,-0.0105156
-4.776e-04,-0.0536562,-0.0106719
-4.768e-04,-0.0538141,-0.0104063
-4.760e-04,-0.0544453,-0.0105938
-4.752e-04,-0.0548398,-0.010375
-4.744e-04,-0.053893,-0.0105313
-4.736e-04,-0.0547609,-0.0105156
-4.728e-04,-0.0547609,-0.0105313
-4.720e-04,-0.0549187,-0.0104219
-4.712e-04,-0.0545242,-0.0104688
-4.704e-04,-0.0551555,-0.0105781
-4.696e-04,-0.0544453,-0.0105313
-4.688e-04,-0.0557078,-0.0103438
-4.680e-04,-0.0552344,-0.0105
-4.672e-04,-0.054682,-0.0105
-4.664e-04,-0.0554711,-0.0105781
-4.656e-04,-0.0546031,-0.0104844
-4.648e-04,-0.0559445,-0.0104063
-4.640e-04,-0.0556289,-0.0104531
-4.632e-04,-0.0552344,-0.0103906
-4.624e-04,-0.0560234,-0.0104844
-4.616e-04,-0.054682,-0.0104844
-4.608e-04,-0.0559445,-0.0105313
-4.600e-04,-0.0552344,-0.0103594
-4.592e-04,-0.0564969,-0.0104844
-4.584e-04,-0.05555,-0.0105
-4.576e-04,-0.0561023,-0.0106094
-4.568e-04,-0.0568125,-0.0105469
-4.560e-04,-0.0559445,-0.0104844
-4.552e-04,-0.056418,-0.0103594
-4.544e-04,-0.0561023,-0.0104063
-4.536e-04,-0.0551555,-0.0105469
-4.528e-04,-0.0561023,-0.0105781
-4.520e-04,-0.0571281,-0.0105313
-4.512e-04,-0.0565758,-0.0105
-4.504e-04,-0.0582328,-0.0105313
-4.496e-04,-0.0564969,-0.0105469
-4.488e-04,-0.0567336,-0.0103438
-4.480e-04,-0.0576016,-0.0105313
-4.472e-04,-0.0559445,-0.0103594
-4.464e-04,-0.058075,-0.0103281
-4.456e-04,-0.0571281,-0.0104375
-4.448e-04,-0.0561023,-0.010375
-4.440e-04,-0.0578383,-0.0105781
-4.432e-04,-0.0570492,-0.0103594
-4.424e-04,-0.0583117,-0.0105313
-4.416e-04,-0.0586273,-0.0105469
-4.408e-04,-0.058075,-0.0105938
-4.400e-04,-0.0595742,-0.0104531
-4.392e-04,-0.0591008,-0.0104375
-4.384e-04,-0.0583906,-0.0105156
-4.376e-04,-0.058075,-0.0103594
-4.368e-04,-0.0582328,-0.0104531
-4.360e-04,-0.0592586,-0.0104063
-4.352e-04,-0.0592586,-0.0104688
-4.344e-04,-0.0587062,-0.0105938
-4.336e-04,-0.0594164,-0.0105
-4.328e-04,-0.0603633,-0.0103906
-4.320e-04,-0.0591797,-0.0106406
-4.312e-04,-0.0587852,-0.0104688
-4.304e-04,-0.0593375,-0.0103906
-4.296e-04,-0.0593375,-0.0105313
-4.288e-04,-0.0595742,-0.0104844
-4.280e-04,-0.059732,-0.0105
-4.272e-04,-0.0593375,-0.0104844
-4.264e-04,-0.0596531,-0.0104688
-4.256e-04,-0.0603633,-0.0105469
-4.248e-04,-0.0593375,-0.0104063
-4.240e-04,-0.0587062,-0.0105469
-4.232e-04,-0.0592586,-0.0104844
-4.224e-04,-0.058943,-0.0104688
-4.216e-04,-0.0585484,-0.0106094
-4.208e-04,-0.0583906,-0.0105469
-4.200e-04,-0.0590219,-0.0105938
-4.192e-04,-0.0579172,-0.0104844
-4.184e-04,-0.0602844,-0.0105
-4.176e-04,-0.0602844,-0.0104688
-4.168e-04,-0.0611523,-0.0104219
-4.160e-04,-0.0598898,-0.0105
-4.152e-04,-0.0598898,-0.0105
-4.144e-04,-0.0601266,-0.0105469
-4.136e-04,-0.0594953,-0.0104063
-4.128e-04,-0.0595742,-0.0105625
-4.120e-04,-0.0609945,-0.0103906
-4.112e-04,-0.0599687,-0.0106719
-4.104e-04,-0.0602055,-0.0105313
-4.096e-04,-0.0600477,-0.0104375
-4.088e-04,-0.0601266,-0.0105156
-4.080e-04,-0.0609156,-0.0104531
-4.072e-04,-0.0608367,-0.0103906
-4.064e-04,-0.0603633,-0.010375
-4.056e-04,-0.059732,-0.0104063
-4.048e-04,-0.0609945,-0.0105469
-4.040e-04,-0.0612312,-0.0105938
-4.032e-04,-0.0606,-0.0106719
-4.024e-04,-0.0606,-0.0104063
-4.016e-04,-0.0600477,-0.0104688
-4.008e-04,-0.0606,-0.0104688
-4.000e-04,-0.0603633,-0.0106719
-3.992e-04,-0.0606789,-0.0104844
-3.984e-04,-0.0606789,-0.0106094
-3.976e-04,-0.0617047,-0.0106719
-3.968e-04,-0.0598898,-0.0105156
-3.960e-04,-0.0608367,-0.0105
-3.952e-04,-0.0618625,-0.010625
-3.944e-04,-0.0610734,-0.0105156
-3.936e-04,-0.0607578,-0.0104688
-3.928e-04,-0.0612312,-0.0105469
-3.920e-04,-0.0611523,-0.0104688
-3.912e-04,-0.0609945,-0.0104688
-3.904e-04,-0.0616258,-0.0104844
-3.896e-04,-0.0612312,-0.0105156
-3.888e-04,-0.0607578,-0.0105
-3.880e-04,-0.0613102,-0.010375
-3.872e-04,-0.0612312,-0.0105156
-3.864e-04,-0.0604422,-0.0105
-3.856e-04,-0.0606,-0.0104375
-3.848e-04,-0.0609156,-0.0105781
-3.840e-04,-0.0613102,-0.0105313
-3.832e-04,-0.0607578,-0.0105469
-3.824e-04,-0.0617047,-0.0104375
-3.816e-04,-0.0613891,-0.0105781
-3.808e-04,-0.0617836,-0.0104531
-3.800e-04,-0.0620992,-0.0103438
-3.792e-04,-0.0609156,-0.0104531
-3.784e-04,-0.0624148,-0.0104688
-3.776e-04,-0.0633617,-0.0104219
-3.768e-04,-0.062257,-0.0105313
-3.760e-04,-0.0625727,-0.0104688
-3.752e-04,-0.0628883,-0.0104219
-3.744e-04,-0.0625727,-0.0104063
-3.736e-04,-0.0620992,-0.0104531
-3.728e-04,-0.0625727,-0.0104375
-3.720e-04,-0.0621781,-0.0104063
-3.712e-04,-0.0621781,-0.0104844
-3.704e-04,-0.0624937,-0.0104688
-3.696e-04,-0.0624148,-0.0106563
-3.688e-04,-0.0630461,-0.0105938
-3.680e-04,-0.0629672,-0.0105156
-3.672e-04,-0.0625727,-0.0104688
-3.664e-04,-0.0630461,-0.0106563
-3.656e-04,-0.0624937,-0.0104063
-3.648e-04,-0.062257,-0.0105156
-3.640e-04,-0.0637562,-0.0102656
-3.632e-04,-0.0632039,-0.0104063
-3.624e-04,-0.0627305,-0.0106406
-3.616e-04,-0.0629672,-0.0104375
-3.608e-04,-0.0633617,-0.0104219
-3.600e-04,-0.0628883,-0.0105
-3.592e-04,-0.0629672,-0.0104063
-3.584e-04,-0.0632039,-0.0104688
-3.576e-04,-0.0620203,-0.0104688
-3.568e-04,-0.0623359,-0.0104844
-3.560e-04,-0.0633617,-0.0105313
-3.552e-04,-0.0635195,-0.0104844
-3.544e-04,-0.0632828,-0.0104063
-3.536e-04,-0.0628094,-0.0104531
-3.528e-04,-0.0635195,-0.0103438
-3.520e-04,-0.0633617,-0.0105469
-3.512e-04,-0.0638352,-0.0105625
-3.504e-04,-0.0636773,-0.0104688
-3.496e-04,-0.0632828,-0.0103438
-3.488e-04,-0.0628883,-0.0105781
-3.480e-04,-0.0632828,-0.0105469
-3.472e-04,-0.063993,-0.0105156
-3.464e-04,-0.0635195,-0.0104063
-3.456e-04,-0.0643086,-0.0104219
-3.448e-04,-0.063125,-0.0103906
-3.440e-04,-0.0634406,-0.0105313
-3.432e-04,-0.0629672,-0.0105156
-3.424e-04,-0.063993,-0.0104688
-3.416e-04,-0.063993,-0.0104688
-3.408e-04,-0.0638352,-0.0104375
-3.400e-04,-0.0643086,-0.0104531
-3.392e-04,-0.0644664,-0.0104063
-3.384e-04,-0.064782,-0.0106094
-3.376e-04,-0.0643875,-0.0105938
-3.368e-04,-0.0643875,-0.010375
-3.360e-04,-0.0644664,-0.0105156
-3.352e-04,-0.0646242,-0.0105469
-3.344e-04,-0.0648609,-0.0105313
-3.336e-04,-0.0634406,-0.0105469
-3.328e-04,-0.0635195,-0.0105156
-3.320e-04,-0.0638352,-0.0105469
-3.312e-04,-0.0644664,-0.0105625
-3.304e-04,-0.0645453,-0.0105
-3.296e-04,-0.0650977,-0.0105313
-3.288e-04,-0.0638352,-0.0105
-3.280e-04,-0.064782,-0.0104688
-3.272e-04,-0.0645453,-0.0105938
-3.264e-04,-0.064782,-0.0105938
-3.256e-04,-0.0641508,-0.0104844
-3.248e-04,-0.0647031,-0.0104688
-3.240e-04,-0.0648609,-0.0105781
-3.232e-04,-0.0640719,-0.0104844
-3.224e-04,-0.0657289,-0.0105938
-3.216e-04,-0.063993,-0.0105313
-3.208e-04,-0.0657289,-0.0104844
-3.200e-04,-0.064782,-0.0104531
-3.192e-04,-0.0641508,-0.0104688
-3.184e-04,-0.0646242,-0.010625
-3.176e-04,-0.0657289,-0.0105156
-3.168e-04,-0.0654133,-0.0105313
-3.160e-04,-0.0643086,-0.0107031
-3.152e-04,-0.0658867,-0.0104375
-3.144e-04,-0.0643086,-0.0106406
-3.136e-04,-0.064782,-0.0106094
-3.128e-04,-0.0661234,-0.0105313
-3.120e-04,-0.0654133,-0.0105
-3.112e-04,-0.0665969,-0.0106406
-3.104e-04,-0.0647031,-0.0106094
-3.096e-04,-0.0660445,-0.0104688
-3.088e-04,-0.0654922,-0.0104844
-3.080e-04,-0.0654133,-0.0104688
-3.072e-04,-0.0651766,-0.0106719
-3.064e-04,-0.0650187,-0.0104531
-3.056e-04,-0.0646242,-0.0105
-3.048e-04,-0.0657289,-0.0105781
-3.040e-04,-0.0664391,-0.0104063
-3.032e-04,-0.0650977,-0.0106406
-3.024e-04,-0.0624148,-0.0106094
-3.016e-04,-0.0368492,-0.00973438
-3.008e-04,-0.026118,-0.00678125
-3.000e-04,-0.0246977,-0.0020625
-2.992e-04,-0.0244609,-0.0008125
-2.984e-04,-0.0236719,-0.000875
-2.976e-04,-0.024382,-0.00104688
-2.968e-04,-0.024382,-0.00132813
-2.960e-04,-0.0250133,-0.00107813
-2.952e-04,-0.0242242,-0.00104688
-2.944e-04,-0.0258812,-0.00104688
-2.936e-04,-0.024382,-0.00110938
-2.928e-04,-0.0226461,-0.001125
-2.920e-04,-0.0222516,-0.0010625
-2.912e-04,-0.0248555,-0.00115625
-2.904e-04,-0.0220148,-0.00103125
-2.896e-04,-0.0240664,-0.00104688
-2.888e-04,-0.0240664,-0.0010625
-2.880e-04,-0.0205945,-0.00103125
-2.872e-04,-0.0219359,-0.00107813
-2.864e-04,-0.0213047,-0.00103125
-2.856e-04,-0.0197266,-0.00114063
-2.848e-04,-0.0215414,-0.0010625
-2.840e-04,-0.0220148,-0.00120313
-2.832e-04,-0.0231984,-0.001125
-2.824e-04,-0.0213836,-0.00109375
-2.816e-04,-0.0215414,-0.00109375
-2.808e-04,-0.0204367,-0.00110938
-2.800e-04,-0.0217781,-0.00107813
-2.792e-04,-0.0209891,-0.0011875
-2.784e-04,-0.0200422,-0.0010625
-2.776e-04,-0.0216203,-0.00110938
-2.768e-04,-0.021068,-0.00101563
-2.760e-04,-0.0202789,-0.00103125
-2.752e-04,-0.0213047,-0.00110938
-2.744e-04,-0.0216992,-0.00103125
-2.736e-04,-0.0200422,-0.00103125
-2.728e-04,-0.0198844,-0.00101563
-2.720e-04,-0.0199633,-0.00104688
-2.712e-04,-0.0205156,-0.0010625
-2.704e-04,-0.0189375,-0.00104688
-2.696e-04,-0.0192531,-0.00104688
-2.688e-04,-0.0194898,-0.00103125
-2.680e-04,-0.0179117,-0.001125
-2.672e-04,-0.0199633,-0.00101563
-2.664e-04,-0.0195687,-0.00109375
-2.656e-04,-0.0187008,-0.00101563
-2.648e-04,-0.019332,-0.00104688
-2.640e-04,-0.0181484,-0.001125
-2.632e-04,-0.0191742,-0.00107813
-2.624e-04,-0.0194109,-0.00117188
-2.616e-04,-0.0172805,-0.00114063
-2.608e-04,-0.0200422,-0.00109375
-2.600e-04,-0.0191742,-0.00117188
-2.592e-04,-0.0200422,-0.00114063
-2.584e-04,-0.0204367,-0.00103125
-2.576e-04,-0.0184641,-0.00107813
-2.568e-04,-0.0187797,-0.00107813
-2.560e-04,-0.0179906,-0.001125
-2.552e-04,-0.019332,-0.00103125
-2.544e-04,-0.0183062,-0.00104688
-2.536e-04,-0.0174383,-0.00101563
-2.528e-04,-0.0194109,-0.00101563
-2.520e-04,-0.0187008,-0.001125
-2.512e-04,-0.0187797,-0.00115625
-2.504e-04,-0.0190953,-0.00103125
-2.496e-04,-0.0195687,-0.001
-2.488e-04,-0.0171227,-0.00109375
-2.480e-04,-0.0184641,-0.00110938
-2.472e-04,-0.0179117,-0.00109375
-2.464e-04,-0.0175172,-0.00101563
-2.456e-04,-0.0175961,-0.00103125
-2.448e-04,-0.0194109,-0.00125
-2.440e-04,-0.018543,-0.00101563
-2.432e-04,-0.0180695,-0.00109375
-2.424e-04,-0.0182273,-0.00101563
-2.416e-04,-0.017675,-0.00107813
-2.408e-04,-0.0179906,-0.00103125
-2.400e-04,-0.0172016,-0.00101563
-2.392e-04,-0.0186219,-0.00103125
-2.384e-04,-0.0183062,-0.00101563
-2.376e-04,-0.0175961,-0.00103125
-2.368e-04,-0.0182273,-0.000984375
-2.360e-04,-0.0175961,-0.00110938
-2.352e-04,-0.0171227,-0.00101563
-2.344e-04,-0.0189375,-0.00109375
-2.336e-04,-0.0168859,-0.00101563
-2.328e-04,-0.0177539,-0.00104688
-2.320e-04,-0.0181484,-0.00109375
-2.312e-04,-0.0194109,-0.00117188
-2.304e-04,-0.0179117,-0.0010625
-2.296e-04,-0.017675,-0.00101563
-2.288e-04,-0.0187797,-0.00104688
-2.280e-04,-0.0169648,-0.00115625
-2.272e-04,-0.0181484,-0.00110938
-2.264e-04,-0.0172016,-0.00101563
-2.256e-04,-0.0175961,-0.0010625
-2.248e-04,-0.0181484,-0.00109375
-2.240e-04,-0.0175172,-0.00103125
-2.232e-04,-0.0179906,-0.00117188
-2.224e-04,-0.0171227,-0.00104688
-2.216e-04,-0.0174383,-0.00103125
-2.208e-04,-0.0173594,-0.00103125
-2.200e-04,-0.0173594,-0.00107813
-2.192e-04,-0.0183062,-0.00103125
-2.184e-04,-0.0170437,-0.00117188
-2.176e-04,-0.0169648,-0.00104688
-2.168e-04,-0.0178328,-0.00104688
-2.160e-04,-0.0172016,-0.00101563
-2.152e-04,-0.0170437,-0.00101563
-2.144e-04,-0.0175172,-0.00101563
-2.136e-04,-0.0175172,-0.00104688
-2.128e-04,-0.0172805,-0.0010625
-2.120e-04,-0.0175961,-0.00126563
-2.112e-04,-0.0180695,-0.0010625
-2.104e-04,-0.0167281,-0.00101563
-2.096e-04,-0.0170437,-0.00104688
-2.088e-04,-0.0174383,-0.00109375
-2.080e-04,-0.0172016,-0.00103125
-2.072e-04,-0.0175172,-0.00103125
-2.064e-04,-0.0172016,-0.000984375
-2.056e-04,-0.0186219,-0.00103125
-2.048e-04,-0.0422148,-0.00240625
-2.040e-04,-0.0710156,-0.00551563
-2.032e-04,-0.0761445,-0.0120938
-2.024e-04,-0.073225,-0.0155
-2.016e-04,-0.0486852,-0.0148281
-2.008e-04,-0.0364547,-0.0107813
-2.000e-04,-0.0359812,-0.005375
-1.992e-04,-0.0354289,-0.00385938
-1.984e-04,-0.036218,-0.00428125
-1.976e-04,-0.0358234,-0.005375
-1.968e-04,-0.0364547,-0.00560938
-1.960e-04,-0.0363758,-0.00528125
-1.952e-04,-0.0351922,-0.00509375
-1.944e-04,-0.0358234,-0.00532813
-1.936e-04,-0.0366914,-0.00540625
-1.928e-04,-0.0366125,-0.00539063
-1.920e-04,-0.036218,-0.00539063
-1.912e-04,-0.0364547,-0.00515625
-1.904e-04,-0.0364547,-0.00529688
-1.896e-04,-0.0355867,-0.00532813
-1.888e-04,-0.0359023,-0.0053125
-1.880e-04,-0.0364547,-0.00514063
-1.872e-04,-0.0356656,-0.00540625
-1.864e-04,-0.0354289,-0.00539063
-1.856e-04,-0.0373227,-0.00540625
-1.848e-04,-0.0356656,-0.0055
-1.840e-04,-0.0360602,-0.005125
-1.832e-04,-0.0355078,-0.00539063
-1.824e-04,-0.036218,-0.00520313
-1.816e-04,-0.0355867,-0.00534375
-1.808e-04,-0.0351922,-0.0053125
-1.800e-04,-0.0382695,-0.00521875
-1.792e-04,-0.0374016,-0.00523438
-1.784e-04,-0.0347187,-0.00520313
-1.776e-04,-0.0366914,-0.005375
-1.768e-04,-0.0355078,-0.00535938
-1.760e-04,-0.0357445,-0.00514063
-1.752e-04,-0.0346398,-0.00553125
-1.744e-04,-0.0368492,-0.005375
-1.736e-04,-0.0391375,-0.00553125
-1.728e-04,-0.0355078,-0.00510938
-1.720e-04,-0.0377961,-0.00528125
-1.712e-04,-0.0377961,-0.0051875
-1.704e-04,-0.0385062,-0.00534375
-1.696e-04,-0.0380328,-0.00529688
-1.688e-04,-0.0373227,-0.0053125
-1.680e-04,-0.0377172,-0.00528125
-1.672e-04,-0.0373227,-0.00501563
-1.664e-04,-0.0357445,-0.00532813
-1.656e-04,-0.0372437,-0.00523438
-1.648e-04,-0.0369281,-0.00535938
-1.640e-04,-0.0370859,-0.0055
-1.632e-04,-0.037875,-0.00521875
-1.624e-04,-0.0373227,-0.005125
-1.616e-04,-0.036218,-0.00528125
-1.608e-04,-0.0358234,-0.00514063
-1.600e-04,-0.038743,-0.00535938
-1.592e-04,-0.0382695,-0.00521875
-1.584e-04,-0.0382695,-0.00539063
-1.576e-04,-0.0366914,-0.00510938
-1.568e-04,-0.0381906,-0.00517188
-1.560e-04,-0.0368492,-0.00532813
-1.552e-04,-0.0382695,-0.00557813
-1.544e-04,-0.037007,-0.00514063
-1.536e-04,-0.0376383,-0.00548438
-1.528e-04,-0.0375594,-0.00534375
-1.520e-04,-0.0367703,-0.00514063
-1.512e-04,-0.0374805,-0.00525
-1.504e-04,-0.0365336,-0.00509375
-1.496e-04,-0.0397687,-0.00520313
-1.488e-04,-0.0369281,-0.00554688
-1.480e-04,-0.0376383,-0.00570313
-1.472e-04,-0.0377961,-0.0054375
-1.464e-04,-0.0374805,-0.00525
-1.456e-04,-0.036218,-0.00525
-1.448e-04,-0.0369281,-0.00534375
-1.440e-04,-0.037007,-0.00526563
-1.432e-04,-0.0382695,-0.00528125
-1.424e-04,-0.038743,-0.00546875
-1.416e-04,-0.0374805,-0.00515625
-1.408e-04,-0.0391375,-0.00554688
-1.400e-04,-0.0380328,-0.00546875
-1.392e-04,-0.0373227,-0.00542188
-1.384e-04,-0.0380328,-0.00545313
-1.376e-04,-0.0386641,-0.00521875
-1.368e-04,-0.0379539,-0.0053125
-1.360e-04,-0.0393742,-0.0054375
-1.352e-04,-0.0372437,-0.00553125
-1.344e-04,-0.0391375,-0.00551563
-1.336e-04,-0.0385062,-0.005
-1.328e-04,-0.0368492,-0.0051875
-1.320e-04,-0.0384273,-0.0053125
-1.312e-04,-0.0381906,-0.00517188
-1.304e-04,-0.0377961,-0.00540625
-1.296e-04,-0.0394531,-0.0055
-1.288e-04,-0.0385852,-0.0053125
-1.280e-04,-0.0371648,-0.0054375
-1.272e-04,-0.038743,-0.00548438
-1.264e-04,-0.0384273,-0.00535938
-1.256e-04,-0.0372437,-0.00548438
-1.248e-04,-0.038743,-0.00542188
-1.240e-04,-0.0380328,-0.0055
-1.232e-04,-0.0394531,-0.00526563
-1.224e-04,-0.0377961,-0.00528125
-1.216e-04,-0.037875,-0.00525
-1.208e-04,-0.0377172,-0.00515625
-1.200e-04,-0.0390586,-0.00534375
-1.192e-04,-0.0392164,-0.00526563
-1.184e-04,-0.037007,-0.00517188
-1.176e-04,-0.0389797,-0.00525
-1.168e-04,-0.037875,-0.00551563
-1.160e-04,-0.0381906,-0.00514063
-1.152e-04,-0.0380328,-0.0053125
-1.144e-04,-0.0390586,-0.0055
-1.136e-04,-0.0390586,-0.00535938
-1.128e-04,-0.0397687,-0.00545313
-1.120e-04,-0.039532,-0.005375
-1.112e-04,-0.0394531,-0.00509375
-1.104e-04,-0.0389008,-0.005375
-1.096e-04,-0.0386641,-0.005125
-1.088e-04,-0.0385062,-0.00539063
-1.080e-04,-0.037875,-0.00553125
-1.072e-04,-0.038743,-0.00546875
-1.064e-04,-0.0377961,-0.00535938
-1.056e-04,-0.0385852,-0.00521875
-1.048e-04,-0.0389008,-0.00546875
-1.040e-04,-0.038743,-0.0051875
-1.032e-04,-0.0383484,-0.00509375
-1.024e-04,-0.0371648,-0.005375
-1.016e-04,-0.0375594,-0.00525
-1.008e-04,-0.038743,-0.00525
-1.000e-04,-0.0377172,-0.0053125
-9.920e-05,-0.0396109,-0.00545313
-9.840e-05,-0.0375594,-0.00540625
-9.760e-05,-0.0383484,-0.00540625
-9.680e-05,-0.0377172,-0.0051875
-9.600e-05,-0.0382695,-0.00534375
-9.520e-05,-0.0396898,-0.00551563
-9.440e-05,-0.038743,-0.00517188
-9.360e-05,-0.0365336,-0.005375
-9.280e-05,-0.0366914,-0.00525
-9.200e-05,-0.0393742,-0.00551563
-9.120e-05,-0.0389797,-0.00548438
-9.040e-05,-0.0380328,-0.0054375
-8.960e-05,-0.0381117,-0.00540625
-8.880e-05,-0.0384273,-0.00560938
-8.800e-05,-0.0388219,-0.00525
-8.720e-05,-0.0389797,-0.00540625
-8.640e-05,-0.0384273,-0.00529688
-8.560e-05,-0.0388219,-0.00529688
-8.480e-05,-0.0393742,-0.00532813
-8.400e-05,-0.0397687,-0.00554688
-8.320e-05,-0.038743,-0.0055
-8.240e-05,-0.0381117,-0.0054375
-8.160e-05,-0.0389008,-0.0053125
-8.080e-05,-0.0390586,-0.00534375
-8.000e-05,-0.0389797,-0.00504688
-7.920e-05,-0.0397687,-0.00565625
-7.840e-05,-0.0392953,-0.00504688
-7.760e-05,-0.0399266,-0.00553125
-7.680e-05,-0.0396898,-0.0051875
-7.600e-05,-0.0380328,-0.00540625
-7.520e-05,-0.0373227,-0.00542188
-7.440e-05,-0.0384273,-0.00526563
-7.360e-05,-0.038743,-0.00551563
-7.280e-05,-0.0383484,-0.00528125
-7.200e-05,-0.0377172,-0.00525
-7.120e-05,-0.0385062,-0.0054375
-7.040e-05,-0.0396898,-0.00532813
-6.960e-05,-0.0377961,-0.00523438
-6.880e-05,-0.0385852,-0.00539063
-6.800e-05,-0.0381117,-0.005375
-6.720e-05,-0.0393742,-0.0055
-6.640e-05,-0.0397687,-0.005125
-6.560e-05,-0.0383484,-0.00529688
-6.480e-05,-0.039532,-0.005375
-6.400e-05,-0.0373227,-0.005375
-6.320e-05,-0.0389008,-0.0055
-6.240e-05,-0.0383484,-0.00535938
-6.160e-05,-0.0377172,-0.00526563
-6.080e-05,-0.0385062,-0.0055
-6.000e-05,-0.0377961,-0.00535938
-5.920e-05,-0.0390586,-0.00517188
-5.840e-05,-0.039532,-0.00542188
-5.760e-05,-0.0394531,-0.00540625
-5.680e-05,-0.0391375,-0.00532813
-5.600e-05,-0.0393742,-0.00540625
-5.520e-05,-0.0373227,-0.005375
-5.440e-05,-0.0389797,-0.00539063
-5.360e-05,-0.0396109,-0.0056875
-5.280e-05,-0.0379539,-0.00551563
-5.200e-05,-0.0374805,-0.0054375
-5.120e-05,-0.0392164,-0.0054375
-5.040e-05,-0.0382695,-0.00554688
-4.960e-05,-0.0381906,-0.00551563
-4.880e-05,-0.0398477,-0.00534375
-4.800e-05,-0.0394531,-0.00539063
-4.720e-05,-0.0392164,-0.005375
-4.640e-05,-0.0392164,-0.00554688
-4.560e-05,-0.0376383,-0.00534375
-4.480e-05,-0.0381117,-0.00539063
-4.400e-05,-0.0366914,-0.0054375
-4.320e-05,-0.0390586,-0.00551563
-4.240e-05,-0.0384273,-0.00546875
-4.160e-05,-0.0384273,-0.00525
-4.080e-05,-0.0385062,-0.00525
-4.000e-05,-0.038743,-0.0055
-3.920e-05,-0.038743,-0.00528125
-3.840e-05,-0.0376383,-0.00551563
-3.760e-05,-0.0398477,-0.00510938
-3.680e-05,-0.0389008,-0.00515625
-3.600e-05,-0.0392953,-0.00529688
-3.520e-05,-0.0389797,-0.00553125
-3.440e-05,-0.0393742,-0.0053125
-3.360e-05,-0.0386641,-0.00545313
-3.280e-05,-0.0393742,-0.0053125
-3.200e-05,-0.0381906,-0.00570313
-3.120e-05,-0.0389797,-0.00546875
-3.040e-05,-0.0397687,-0.00534375
-2.960e-05,-0.0386641,-0.00551563
-2.880e-05,-0.0380328,-0.00525
-2.800e-05,-0.0388219,-0.00540625
-2.720e-05,-0.0384273,-0.00539063
-2.640e-05,-0.0386641,-0.0055
-2.560e-05,-0.0385852,-0.0054375
-2.480e-05,-0.0376383,-0.00539063
-2.400e-05,-0.0377961,-0.00542188
-2.320e-05,-0.0379539,-0.0054375
-2.240e-05,-0.0370859,-0.005375
-2.160e-05,-0.0382695,-0.00546875
-2.080e-05,-0.0384273,-0.00554688
-2.000e-05,-0.0403211,-0.0054375
-1.920e-05,-0.0384273,-0.00548438
-1.840e-05,-0.0385062,-0.00553125
-1.760e-05,-0.0391375,-0.0054375
-1.680e-05,-0.0385062,-0.00529688
-1.600e-05,-0.037875,-0.00529688
-1.520e-05,-0.0390586,-0.00551563
-1.440e-05,-0.0394531,-0.00546875
-1.360e-05,-0.0381906,-0.00545313
-1.280e-05,-0.0388219,-0.00545313
-1.200e-05,-0.0377172,-0.00492188
-1.120e-05,-0.0398477,-0.005375
-1.040e-05,-0.0394531,-0.00534375
-9.600e-06,-0.0390586,-0.00529688
-8.800e-06,-0.0391375,-0.0053125
-8.000e-06,-0.0392164,-0.00525
-7.200e-06,-0.0389008,-0.0055
-6.400e-06,-0.0383484,-0.00539063
-5.600e-06,-0.0386641,-0.00517188
-4.800e-06,-0.0228828,-0.0046875
-4.000e-06,0.0135719,-0.00259375
-3.200e-06,0.0147555,0.0034375
-2.400e-06,-0.0150711,0.00832813
-1.600e-06,-0.0306156,0.00728125
-8.000e-07,-0.231905,-0.00276563
1.278e-17,-1.32918,-0.0600156
8.000e-07,-1.57757,-0.217484
1.600e-06,-1.59501,-0.353938
2.400e-06,-1.59746,-0.379859
3.200e-06,-1.60077,-0.352516
4.000e-06,-1.61032,-0.330578
4.800e-06,-1.61568,-0.326625
5.600e-06,-1.61813,-0.331313
6.400e-06,-1.62807,-0.334797
7.200e-06,-1.63391,-0.335109
8.000e-06,-1.6362,-0.334219
8.800e-06,-1.64575,-0.333656
9.600e-06,-1.65159,-0.333391
1.040e-05,-1.65324,-0.333766
1.120e-05,-1.65892,-0.333906
1.200e-05,-1.6676,-0.333672
1.280e-05,-1.67163,-0.333656
1.360e-05,-1.67329,-0.333625
1.440e-05,-1.68086,-0.333547
1.520e-05,-1.68836,-0.333797
1.600e-05,-1.69057,-0.333938
1.680e-05,-1.69049,-0.333594
1.760e-05,-1.69554,-0.333844
1.840e-05,-1.70327,-0.333922
1.920e-05,-1.70769,-0.333953
2.000e-05,-1.7084,-0.334078
2.080e-05,-1.71274,-0.333859
2.160e-05,-1.72221,-0.334156
2.240e-05,-1.72678,-0.333828
2.320e-05,-1.72742,-0.334
2.400e-05,-1.72923,-0.333969
2.480e-05,-1.73633,-0.334031
2.560e-05,-1.7428,-0.334125
2.640e-05,-1.7458,-0.334281
2.720e-05,-1.74714,-0.334141
2.800e-05,-1.74848,-0.334031
2.880e-05,-1.75495,-0.334125
2.960e-05,-1.75882,-0.334359
3.040e-05,-1.7634,-0.334328
3.120e-05,-1.76482,-0.334141
3.200e-05,-1.76529,-0.334188
3.280e-05,-1.76829,-0.334203
3.360e-05,-1.77444,-0.334234
3.440e-05,-1.78123,-0.33425
3.520e-05,-1.7832,-0.334313
3.600e-05,-1.78446,-0.334375
3.680e-05,-1.78581,-0.334422
3.760e-05,-1.79212,-0.334266
3.840e-05,-1.7978,-0.334141
3.920e-05,-1.80088,-0.33425
4.000e-05,-1.80269,-0.334422
4.080e-05,-1.80309,-0.334469
4.160e-05,-1.80522,-0.334313
4.240e-05,-1.80829,-0.334453
4.320e-05,-1.81137,-0.334344
4.400e-05,-1.81587,-0.334375
4.480e-05,-1.81918,-0.334516
4.560e-05,-1.82045,-0.334531
4.640e-05,-1.82179,-0.334328
4.720e-05,-1.82368,-0.334344
4.800e-05,-1.82802,-0.334484
4.880e-05,-1.83378,-0.334375
4.960e-05,-1.83654,-0.334344
5.040e-05,-1.83915,-0.334391
5.120e-05,-1.83962,-0.334297
5.200e-05,-1.84151,-0.3345
5.280e-05,-1.84412,-0.334281
5.360e-05,-1.84688,-0.334547
5.440e-05,-1.85161,-0.334391
5.520e-05,-1.85501,-0.334344
5.600e-05,-1.85611,-0.334516
5.680e-05,-1.85824,-0.334313
5.760e-05,-1.85824,-0.334391
5.840e-05,-1.85895,-0.334344
5.920e-05,-1.86116,-0.334297
6.000e-05,-1.86408,-0.334359
6.080e-05,-1.86826,-0.334281
6.160e-05,-1.8726,-0.334359
6.240e-05,-1.87552,-0.334469
6.320e-05,-1.87639,-0.334375
6.400e-05,-1.87686,-0.334344
6.480e-05,-1.87734,-0.334313
6.560e-05,-1.87844,-0.334313
6.640e-05,-1.88152,-0.334266
6.720e-05,-1.88428,-0.334328
6.800e-05,-1.88783,-0.334313
6.880e-05,-1.89162,-0.334422
6.960e-05,-1.89454,-0.334219
7.040e-05,-1.89485,-0.334344
7.120e-05,-1.89612,-0.334281
7.200e-05,-1.89627,-0.334375
7.280e-05,-1.89706,-0.334266
7.360e-05,-1.89777,-0.33425
7.440e-05,-1.90069,-0.334313
7.520e-05,-1.9048,-0.334422
7.600e-05,-1.90977,-0.334391
7.680e-05,-1.91229,-0.334219
7.760e-05,-1.91411,-0.334359
7.840e-05,-1.91553,-0.334203
7.920e-05,-1.9164,-0.334453
8.000e-05,-1.91813,-0.334328
8.080e-05,-1.92302,-0.334328
8.160e-05,-1.92531,-0.334156
8.240e-05,-1.92776,-0.334359
8.320e-05,-1.92989,-0.334266
8.400e-05,-1.9317,-0.334375
8.480e-05,-1.93241,-0.334391
8.560e-05,-1.93312,-0.334219
8.640e-05,-1.93344,-0.334344
8.720e-05,-1.93352,-0.334375
8.800e-05,-1.93565,-0.334219
8.880e-05,-1.93802,-0.334172
8.960e-05,-1.94023,-0.334281
9.040e-05,-1.94425,-0.334344
9.120e-05,-1.94788,-0.334141
9.200e-05,-1.94993,-0.334359
9.280e-05,-1.9508,-0.334297
9.360e-05,-1.95246,-0.334188
9.440e-05,-1.95269,-0.334234
9.520e-05,-1.93794,-0.334047
9.600e-05,-1.90503,-0.332281
9.680e-05,-1.90077,-0.326328
9.760e-05,-1.90338,-0.321109
9.840e-05,-1.9063,-0.320188
9.920e-05,-1.9089,-0.321297
1.000e-04,-1.90985,-0.321984
1.008e-04,-1.91024,-0.32225
1.016e-04,-1.91087,-0.322094
1.024e-04,-1.91158,-0.321875
1.032e-04,-1.91214,-0.322031
1.040e-04,-1.91261,-0.322031
1.048e-04,-1.91584,-0.321875
1.056e-04,-1.91813,-0.321859
1.064e-04,-1.91955,-0.321891
1.072e-04,-1.92381,-0.322031
1.080e-04,-1.92642,-0.321953
1.088e-04,-1.92736,-0.322063
1.096e-04,-1.92752,-0.322078
1.104e-04,-1.92847,-0.322
1.112e-04,-1.92847,-0.321969
1.120e-04,-1.92918,-0.321906
1.128e-04,-1.9291,-0.322016
1.136e-04,-1.93123,-0.322016
1.144e-04,-1.93273,-0.322141
1.152e-04,-1.93628,-0.322
1.160e-04,-1.93794,-0.321953
1.168e-04,-1.94157,-0.321953
1.176e-04,-1.94283,-0.322031
1.184e-04,-1.94425,-0.321641
1.192e-04,-1.94504,-0.321953
1.200e-04,-1.94551,-0.322063
1.208e-04,-1.94614,-0.322078
1.216e-04,-1.94685,-0.321844
1.224e-04,-1.94883,-0.321859
1.232e-04,-1.95111,-0.321922
1.240e-04,-1.95411,-0.322031
1.248e-04,-1.95719,-0.321844
1.256e-04,-1.9594,-0.321922
1.264e-04,-1.96106,-0.322063
1.272e-04,-1.96192,-0.321984
1.280e-04,-1.96161,-0.321984
1.288e-04,-1.96303,-0.321844
1.296e-04,-1.96271,-0.322125
1.304e-04,-1.96256,-0.321922
1.312e-04,-1.96279,-0.322031
1.320e-04,-1.965,-0.321938
1.328e-04,-1.96595,-0.321844
1.336e-04,-1.96926,-0.322
1.344e-04,-1.97321,-0.321953
1.352e-04,-1.97629,-0.321813
1.360e-04,-1.97731,-0.321844
1.368e-04,-1.97913,-0.322031
1.376e-04,-1.97944,-0.321922
1.384e-04,-1.98063,-0.322031
1.392e-04,-1.98015,-0.322094
1.400e-04,-1.97999,-0.322
1.408e-04,-1.98015,-0.321859
1.416e-04,-1.98094,-0.322047
1.424e-04,-1.98252,-0.321938
1.432e-04,-1.98544,-0.322
1.440e-04,-1.98796,-0.322063
1.448e-04,-1.99088,-0.322
1.456e-04,-1.99365,-0.321984
1.464e-04,-1.99593,-0.322
1.472e-04,-1.99727,-0.321953
1.480e-04,-1.99767,-0.322016
1.488e-04,-1.99862,-0.322063
1.496e-04,-1.99901,-0.321891
1.504e-04,-1.99941,-0.321953
1.512e-04,-1.99996,-0.321906
1.520e-04,-2.00304,-0.321984
1.528e-04,-2.00588,-0.322094
1.536e-04,-2.00777,-0.322063
1.544e-04,-2.0114,-0.322016
1.552e-04,-2.01337,-0.322141
1.560e-04,-2.01471,-0.322031
1.568e-04,-2.01456,-0.321969
1.576e-04,-2.01566,-0.321938
1.584e-04,-2.01582,-0.321938
1.592e-04,-2.01692,-0.321766
1.600e-04,-2.01716,-0.321938
1.608e-04,-2.01882,-0.321844
1.616e-04,-2.02221,-0.321844
1.624e-04,-2.02489,-0.321844
1.632e-04,-2.026,-0.321813
1.640e-04,-2.02805,-0.321797
1.648e-04,-2.0312,-0.321969
1.656e-04,-2.03215,-0.322
1.664e-04,-2.03373,-0.322016
1.672e-04,-2.03389,-0.321859
1.680e-04,-2.03357,-0.322016
1.688e-04,-2.03341,-0.321938
1.696e-04,-2.03389,-0.321922
1.704e-04,-2.03491,-0.322063
1.712e-04,-2.03657,-0.321922
1.720e-04,-2.03878,-0.322125
1.728e-04,-2.04059,-0.321844
1.736e-04,-2.04257,-0.321891
1.744e-04,-2.04604,-0.321766
1.752e-04,-2.04856,-0.322016
1.760e-04,-2.04967,-0.322
1.768e-04,-2.05046,-0.321891
1.776e-04,-2.05125,-0.321922
1.784e-04,-2.05188,-0.32175
1.792e-04,-2.05298,-0.322063
1.800e-04,-2.05314,-0.321984
1.808e-04,-2.05409,-0.322078
1.816e-04,-2.05677,-0.322063
1.824e-04,-2.05819,-0.321969
1.832e-04,-2.06048,-0.321734
1.840e-04,-2.06292,-0.321938
1.848e-04,-2.06648,-0.321859
1.856e-04,-2.06774,-0.321859
1.864e-04,-2.06829,-0.322031
1.872e-04,-2.06861,-0.321969
1.880e-04,-2.0679,-0.321813
1.888e-04,-2.06837,-0.321813
1.896e-04,-2.06869,-0.321844
1.904e-04,-2.07003,-0.321922
1.912e-04,-2.07042,-0.321969
1.920e-04,-2.07239,-0.321828
1.928e-04,-2.07421,-0.321984
1.936e-04,-2.0765,-0.321938
1.944e-04,-2.07886,-0.321859
1.952e-04,-2.08052,-0.321906
1.960e-04,-2.08281,-0.321969
1.968e-04,-2.0847,-0.321766
1.976e-04,-2.08644,-0.322031
1.984e-04,-2.08699,-0.321938
1.992e-04,-1.96098,-0.319641
2.000e-04,-0.895428,-0.283594
2.008e-04,-0.51944,-0.165859
2.016e-04,-0.493164,0.00126563
2.024e-04,-0.491823,0.0595781
2.032e-04,-0.49127,0.0389531
2.040e-04,-0.489061,0.0111875
2.048e-04,-0.482038,0.00209375
2.056e-04,-0.476909,0.00582813
2.064e-04,-0.473753,0.0105938
2.072e-04,-0.47178,0.0119844
2.080e-04,-0.466099,0.0110781
2.088e-04,-0.459234,0.00990625
2.096e-04,-0.454895,0.00959375
2.104e-04,-0.453948,0.00975
2.112e-04,-0.450634,0.009875
2.120e-04,-0.445741,0.0098125
2.128e-04,-0.439034,0.0100156
2.136e-04,-0.434616,0.00998438
2.144e-04,-0.434142,0.0100938
2.152e-04,-0.433905,0.0100625
2.160e-04,-0.432643,0.00990625
2.168e-04,-0.427987,0.0100156
2.176e-04,-0.423569,0.00995313
2.184e-04,-0.419387,0.010125
2.192e-04,-0.415284,0.0101719
2.200e-04,-0.414179,0.0100938
2.208e-04,-0.412916,0.0102344
2.216e-04,-0.410076,0.0102031
2.224e-04,-0.403132,0.0103438
2.232e-04,-0.398398,0.010375
2.240e-04,-0.395952,0.0104375
2.248e-04,-0.395715,0.0103281
2.256e-04,-0.394689,0.0104531
2.264e-04,-0.394452,0.0103281
2.272e-04,-0.391927,0.010625
2.280e-04,-0.390586,0.0105469
2.288e-04,-0.387587,0.0106094
2.296e-04,-0.383563,0.0105313
2.304e-04,-0.379381,0.0105938
2.312e-04,-0.377961,0.0105313
2.320e-04,-0.37512,0.0105625
2.328e-04,-0.374726,0.010375
2.336e-04,-0.375357,0.0105
2.344e-04,-0.374805,0.0107031
2.352e-04,-0.374252,0.0104531
2.360e-04,-0.37078,0.0107031
2.368e-04,-0.367782,0.0106719
2.376e-04,-0.365888,0.0106406
2.384e-04,-0.362811,0.0107656
2.392e-04,-0.35997,0.0106719
2.400e-04,-0.357287,0.0106406
2.408e-04,-0.357366,0.0106563
2.416e-04,-0.355473,0.0106094
2.424e-04,-0.355552,0.0105313
2.432e-04,-0.355394,0.0107656
2.440e-04,-0.355394,0.0107813
2.448e-04,-0.355315,0.0106563
2.456e-04,-0.354762,0.0108594
2.464e-04,-0.354289,0.010875
2.472e-04,-0.35208,0.01075
2.480e-04,-0.350738,0.0107031
2.488e-04,-0.348055,0.010875
2.496e-04,-0.344741,0.0108906
2.504e-04,-0.34127,0.0107344
2.512e-04,-0.340244,0.0108125
2.520e-04,-0.33764,0.01075
2.528e-04,-0.336693,0.0108281
2.536e-04,-0.335194,0.0110469
2.544e-04,-0.336377,0.010625
2.552e-04,-0.335904,0.01075
2.560e-04,-0.335825,0.010875
2.568e-04,-0.334326,0.0109219
2.576e-04,-0.335194,0.0109219
2.584e-04,-0.334089,0.0107344
2.592e-04,-0.334247,0.01075
2.600e-04,-0.333221,0.0109688
2.608e-04,-0.332353,0.0107813
2.616e-04,-0.330775,0.0107813
2.624e-04,-0.329512,0.0107656
2.632e-04,-0.326356,0.0109531
2.640e-04,-0.324305,0.0108594
2.648e-04,-0.322411,0.0108125
2.656e-04,-0.321464,0.0108438
2.664e-04,-0.318229,0.0108438
2.672e-04,-0.317598,0.0108438
2.680e-04,-0.316651,0.011
2.688e-04,-0.316256,0.0107344
2.696e-04,-0.313731,0.0108906
2.704e-04,-0.314599,0.0108438
2.712e-04,-0.314757,0.0107969
2.720e-04,-0.314205,0.0107813
2.728e-04,-0.314836,0.01075
2.736e-04,-0.314362,0.0109219
2.744e-04,-0.313968,0.0110469
2.752e-04,-0.313731,0.0110313
2.760e-04,-0.313258,0.0108594
2.768e-04,-0.313889,0.0108125
2.776e-04,-0.311601,0.0106406
2.784e-04,-0.312311,0.0110156
2.792e-04,-0.31018,0.0108438
2.800e-04,-0.307813,0.0107656
2.808e-04,-0.307498,0.0108438
2.816e-04,-0.306472,0.0108438
2.824e-04,-0.304973,0.0108125
2.832e-04,-0.302448,0.0109219
2.840e-04,-0.302053,0.0108125
2.848e-04,-0.301659,0.0105625
2.856e-04,-0.300317,0.0107344
2.864e-04,-0.298739,0.0108125
2.872e-04,-0.297634,0.0108906
2.880e-04,-0.297634,0.0110625
2.888e-04,-0.296135,0.0107656
2.896e-04,-0.294952,0.0107656
2.904e-04,-0.295188,0.0107656
2.912e-04,-0.294084,0.0112188
2.920e-04,-0.294162,0.0109688
2.928e-04,-0.294794,0.0109219
2.936e-04,-0.29361,0.0107344
2.944e-04,-0.316098,0.0110313
2.952e-04,-0.358471,0.0109375
2.960e-04,-0.364468,0.00525
2.968e-04,-0.362653,-0.00110938
2.976e-04,-0.362022,-0.00325
2.984e-04,-0.362653,-0.00304688
2.992e-04,-0.25613,-0.001
3.000e-04,0.799478,0.0212188
3.008e-04,1.19164,0.145203
3.016e-04,1.21808,0.322281
3.024e-04,1.21934,0.382609
3.032e-04,1.22896,0.361453
3.040e-04,1.23551,0.332703
3.048e-04,1.2397,0.323438
3.056e-04,1.24814,0.327063
3.064e-04,1.25492,0.331406
3.072e-04,1.25635,0.332234
3.080e-04,1.26447,0.331516
3.088e-04,1.27339,0.331625
3.096e-04,1.27615,0.331266
3.104e-04,1.28507,0.331266
3.112e-04,1.29177,0.331453
3.120e-04,1.29335,0.331391
3.128e-04,1.29548,0.331453
3.136e-04,1.30345,0.331422
3.144e-04,1.30992,0.331578
3.152e-04,1.31253,0.331375
3.160e-04,1.31442,0.331422
3.168e-04,1.32326,0.331547
3.176e-04,1.33028,0.331391
3.184e-04,1.3317,0.331563
3.192e-04,1.33588,0.331406
3.200e-04,1.34504,0.331547
3.208e-04,1.3493,0.331547
3.216e-04,1.35032,0.331453
3.224e-04,1.35364,0.331469
3.232e-04,1.36216,0.331406
3.240e-04,1.3676,0.331734
3.248e-04,1.3695,0.3315
3.256e-04,1.3706,0.331531
3.264e-04,1.37628,0.331609
3.272e-04,1.38473,0.331547
3.280e-04,1.38828,0.331516
3.288e-04,1.38843,0.331438
3.296e-04,1.38946,0.331672
3.304e-04,1.39317,0.331563
3.312e-04,1.39964,0.331453
3.320e-04,1.40524,0.331625
3.328e-04,1.40666,0.331703
3.336e-04,1.40737,0.331516
3.344e-04,1.41084,0.331531
3.352e-04,1.41724,0.331453
3.360e-04,1.42402,0.331438
3.368e-04,1.42584,0.331516
3.376e-04,1.42686,0.331547
3.384e-04,1.43025,0.3315
3.392e-04,1.43515,0.331594
3.400e-04,1.44177,0.331484
3.408e-04,1.44327,0.331641
3.416e-04,1.44509,0.331719
3.424e-04,1.4454,0.331547
3.432e-04,1.44706,0.331609
3.440e-04,1.44872,0.331563
3.448e-04,1.45416,0.331641
3.456e-04,1.46048,0.331516
3.464e-04,1.46363,0.331516
3.472e-04,1.46363,0.331656
3.480e-04,1.46411,0.3315
3.488e-04,1.46718,0.331516
3.496e-04,1.472,0.331594
3.504e-04,1.47973,0.331516
3.512e-04,1.48186,0.331625
3.520e-04,1.48249,0.331656
3.528e-04,1.48391,0.331609
3.536e-04,1.48644,0.331578
3.544e-04,1.4903,0.331578
3.552e-04,1.49377,0.331547
3.560e-04,1.49867,0.331719
3.568e-04,1.50111,0.331563
3.576e-04,1.50127,0.331563
3.584e-04,1.50206,0.331516
3.592e-04,1.50443,0.331734
3.600e-04,1.50798,0.331656
3.608e-04,1.51413,0.331547
3.616e-04,1.51745,0.331422
3.624e-04,1.52037,0.331453
3.632e-04,1.52068,0.331688
3.640e-04,1.521,0.331641
3.648e-04,1.52257,0.331516
3.656e-04,1.52652,0.331516
3.664e-04,1.53212,0.331688
3.672e-04,1.53559,0.331484
3.680e-04,1.53867,0.331469
3.688e-04,1.53899,0.331641
3.696e-04,1.53962,0.331609
3.704e-04,1.54072,0.331484
3.712e-04,1.54254,0.331469
3.720e-04,1.5453,0.331484
3.728e-04,1.55114,0.331563
3.736e-04,1.55548,0.331484
3.744e-04,1.55682,0.331516
3.752e-04,1.55816,0.331594
3.760e-04,1.55769,0.331438
3.768e-04,1.55982,0.331563
3.776e-04,1.56282,0.331531
3.784e-04,1.56613,0.331703
3.792e-04,1.57094,0.331563
3.800e-04,1.57457,0.331594
3.808e-04,1.57726,0.331594
3.816e-04,1.57797,0.331609
3.824e-04,1.57678,0.331703
3.832e-04,1.57844,0.331656
3.840e-04,1.5812,0.331594
3.848e-04,1.58215,0.331563
3.856e-04,1.58491,0.331453
3.864e-04,1.59099,0.331531
3.872e-04,1.59438,0.331563
3.880e-04,1.59635,0.331578
3.888e-04,1.59675,0.331531
3.896e-04,1.59888,0.331484
3.904e-04,1.60156,0.331531
3.912e-04,1.60543,0.331516
3.920e-04,1.60898,0.331391
3.928e-04,1.61395,0.331531
3.936e-04,1.61529,0.331656
3.944e-04,1.61497,0.331656
3.952e-04,1.61553,0.331578
3.960e-04,1.61687,0.331609
3.968e-04,1.61781,0.331609
3.976e-04,1.62255,0.331703
3.984e-04,1.62413,0.331594
3.992e-04,1.6287,0.331609
4.000e-04,1.63233,0.331547
4.008e-04,1.63383,0.3315
4.016e-04,1.63462,0.331578
4.024e-04,1.63494,0.331453
4.032e-04,1.63517,0.331547
4.040e-04,1.63841,0.3315
4.048e-04,1.64228,0.331578
4.056e-04,1.64614,0.331516
4.064e-04,1.6508,0.331594
4.072e-04,1.6519,0.331578
4.080e-04,1.65277,0.331609
4.088e-04,1.6538,0.331563
4.096e-04,1.65435,0.331641
4.104e-04,1.65632,0.331547
4.112e-04,1.65869,0.331516
4.120e-04,1.66129,0.331469
4.128e-04,1.66547,0.331578
4.136e-04,1.66966,0.331484
4.144e-04,1.67187,0.331453
4.152e-04,1.67289,0.331516
4.160e-04,1.67321,0.331453
4.168e-04,1.67376,0.331563
4.176e-04,1.67581,0.331734
4.184e-04,1.67889,0.331703
4.192e-04,1.68268,0.331594
4.200e-04,1.68583,0.3315
4.208e-04,1.68907,0.331609
4.216e-04,1.69072,0.331531
4.224e-04,1.69151,0.331453
4.232e-04,1.69317,0.331563
4.240e-04,1.69309,0.331516
4.248e-04,1.69514,0.331625
4.256e-04,1.69767,0.331438
4.264e-04,1.70177,0.331563
4.272e-04,1.70524,0.331625
4.280e-04,1.70722,0.331719
4.288e-04,1.70998,0.331563
4.296e-04,1.71116,0.331781
4.304e-04,1.71077,0.331594
4.312e-04,1.7125,0.331578
4.320e-04,1.71282,0.331563
4.328e-04,1.71511,0.331703
4.336e-04,1.72,0.331703
4.344e-04,1.72237,0.331641
4.352e-04,1.72529,0.331594
4.360e-04,1.72836,0.331672
4.368e-04,1.73176,0.331688
4.376e-04,1.73381,0.331625
4.384e-04,1.73396,0.331641
4.392e-04,1.73767,0.331656
4.400e-04,1.7432,0.331578
4.408e-04,1.7447,0.331719
4.416e-04,1.74635,0.331469
4.424e-04,1.74777,0.331531
4.432e-04,1.74754,0.331484
4.440e-04,1.74864,0.331719
4.448e-04,1.74833,0.331547
4.456e-04,1.75006,0.331578
4.464e-04,1.75046,0.331375
4.472e-04,1.75416,0.331578
4.480e-04,1.75827,0.331578
4.488e-04,1.75992,0.331594
4.496e-04,1.76379,0.331641
4.504e-04,1.76711,0.3315
4.512e-04,1.76805,0.331563
4.520e-04,1.76837,0.331594
4.528e-04,1.76931,0.331641
4.536e-04,1.77231,0.3315
4.544e-04,1.77515,0.331625
4.552e-04,1.77728,0.331734
4.560e-04,1.78155,0.331656
4.568e-04,1.7847,0.331625
4.576e-04,1.7862,0.331531
4.584e-04,1.78644,0.331516
4.592e-04,1.78723,0.331625
4.600e-04,1.78841,0.331438
4.608e-04,1.79172,0.331641
4.616e-04,1.79401,0.331547
4.624e-04,1.79677,0.331688
4.632e-04,1.80119,0.331594
4.640e-04,1.80364,0.331578
4.648e-04,1.80545,0.331516
4.656e-04,1.80514,0.331484
4.664e-04,1.80561,0.3315
4.672e-04,1.80648,0.331469
4.680e-04,1.80814,0.331547
4.688e-04,1.81114,0.3315
4.696e-04,1.81484,0.331578
4.704e-04,1.81705,0.331547
4.712e-04,1.81918,0.331578
4.720e-04,1.82258,0.331672
4.728e-04,1.82408,0.331531
4.736e-04,1.82518,0.331531
4.744e-04,1.82652,0.331406
4.752e-04,1.82802,0.331563
4.760e-04,1.8307,0.331594
4.768e-04,1.8341,0.331578
4.776e-04,1.83733,0.331516
4.784e-04,1.8397,0.331422
4.792e-04,1.84191,0.331656
4.800e-04,1.84349,0.331641
4.808e-04,1.84357,0.331531
4.816e-04,1.84467,0.331578
4.824e-04,1.84506,0.331531
4.832e-04,1.84656,0.331563
4.840e-04,1.84933,0.331656
4.848e-04,1.85122,0.331688
4.856e-04,1.85398,0.331734
4.864e-04,1.85848,0.331391
4.872e-04,1.86037,0.331672
4.880e-04,1.86235,0.331469
4.888e-04,1.86227,0.331422
4.896e-04,1.86306,0.331656
4.904e-04,1.86392,0.331594
4.912e-04,1.86471,0.331547
4.920e-04,1.86566,0.331531
4.928e-04,1.87016,0.331547
4.936e-04,1.87418,0.331563
4.944e-04,1.87639,0.331563
4.952e-04,1.87907,0.331531
4.960e-04,1.88089,0.331594
4.968e-04,1.88184,0.331625
4.976e-04,1.8816,0.331688
4.984e-04,1.73539,0.332344
4.992e-04,0.402027,0.355453
5.000e-04,-0.01515,0.268359
5.008e-04,-0.00497109,0.0500313
5.016e-04,0.00520781,-0.0548906
5.024e-04,0.00512891,-0.0452969
5.032e-04,0.00505,-0.00904688
5.040e-04,0.00520781,0.00701563
5.048e-04,0.00520781,0.00503125
5.056e-04,0.0143609,-0.000984375
5.064e-04,0.0149922,-0.003
5.072e-04,0.0152289,-0.003
5.080e-04,0.0144398,-0.000984375
5.088e-04,0.0100211,-0.000984375
5.096e-04,0.00520781,-0.000984375
5.104e-04,0.00512891,-0.000984375
5.112e-04,0.00489219,-0.000984375
5.120e-04,0.00512891,-0.000984375
5.128e-04,0.00512891,-0.001
5.136e-04,0.00505,-0.000984375
5.144e-04,0.00520781,-0.001
5.152e-04,0.00497109,-0.000984375
5.160e-04,0.00505,-0.000984375
5.168e-04,0.00505,-0.001
5.176e-04,0.00505,-0.00101563
5.184e-04,0.00505,-0.000984375
5.192e-04,0.00505,-0.000984375
5.200e-04,0.00418203,-0.000984375
5.208e-04,0.00457656,-0.000984375
5.216e-04,-0.00142031,-0.000984375
5.224e-04,-0.00481328,-0.000984375
5.232e-04,-0.00497109,-0.00101563
5.240e-04,-0.00497109,-0.001
5.248e-04,-0.00497109,-0.00101563
5.256e-04,-0.00497109,-0.001
5.264e-04,-0.00497109,-0.00103125
5.272e-04,-0.00505,-0.000984375
5.280e-04,-0.00497109,-0.00101563
5.288e-04,-0.00497109,-0.00101563
5.296e-04,-0.00497109,-0.000984375
5.304e-04,-0.00512891,-0.001
5.312e-04,-0.00497109,-0.00101563
5.320e-04,-0.00497109,-0.000984375
5.328e-04,-0.00497109,-0.000984375
5.336e-04,-0.00497109,-0.00101563
5.344e-04,-0.00497109,-0.000984375
5.352e-04,-0.00512891,-0.001
5.360e-04,-0.00497109,-0.00103125
5.368e-04,-0.00512891,-0.00101563
5.376e-04,-0.00497109,-0.00103125
5.384e-04,-0.00497109,-0.00103125
5.392e-04,-0.00497109,-0.0010625
5.400e-04,-0.00497109,-0.001
5.408e-04,-0.00528672,-0.00123438
5.416e-04,-0.00512891,-0.00128125
5.424e-04,-0.00497109,-0.00107813
5.432e-04,-0.00497109,-0.00101563
5.440e-04,-0.00520781,-0.0011875
5.448e-04,-0.00497109,-0.00101563
5.456e-04,-0.00497109,-0.00107813
5.464e-04,-0.00497109,-0.00129688
5.472e-04,-0.00520781,-0.000984375
5.480e-04,-0.00497109,-0.00123438
5.488e-04,-0.00497109,-0.001
5.496e-04,-0.00497109,-0.000984375
5.504e-04,-0.00512891,-0.001125
5.512e-04,-0.00497109,-0.00104688
5.520e-04,-0.00512891,-0.00104688
5.528e-04,-0.00520781,-0.00103125
5.536e-04,-0.00505,-0.001
5.544e-04,-0.00505,-0.001
5.552e-04,-0.00497109,-0.00103125
5.560e-04,-0.00497109,-0.00103125
5.568e-04,-0.00512891,-0.00103125
5.576e-04,-0.00520781,-0.00129688
5.584e-04,-0.00544453,-0.00135938
5.592e-04,-0.00528672,-0.0015
5.600e-04,-0.00505,-0.00104688
5.608e-04,-0.00505,-0.00139063
5.616e-04,-0.00512891,-0.00103125
5.624e-04,-0.00528672,-0.00103125
5.632e-04,-0.00520781,-0.000984375
5.640e-04,-0.00497109,-0.00101563
5.648e-04,-0.00512891,-0.00107813
5.656e-04,-0.00512891,-0.000984375
5.664e-04,-0.00520781,-0.000984375
5.672e-04,-0.00497109,-0.000984375
5.680e-04,-0.00497109,-0.00103125
5.688e-04,-0.00520781,-0.00110938
5.696e-04,-0.00505,-0.00107813
5.704e-04,-0.00505,-0.00121875
5.712e-04,-0.00520781,-0.001
5.720e-04,-0.00497109,-0.000984375
5.728e-04,-0.00512891,-0.00107813
5.736e-04,-0.00497109,-0.00109375
5.744e-04,-0.00497109,-0.00103125
5.752e-04,-0.00512891,-0.00103125
5.760e-04,-0.00505,-0.00110938
5.768e-04,-0.00512891,-0.00101563
5.776e-04,-0.00512891,-0.001
5.784e-04,-0.00512891,-0.001
5.792e-04,-0.00497109,-0.00104688
5.800e-04,-0.00528672,-0.00110938
5.808e-04,-0.00512891,-0.00120313
5.816e-04,-0.00505,-0.0010625
5.824e-04,-0.00528672,-0.00101563
5.832e-04,-0.00497109,-0.00101563
5.840e-04,-0.00505,-0.00103125
5.848e-04,-0.00512891,-0.00109375
5.856e-04,-0.00512891,-0.001
5.864e-04,-0.00512891,-0.000984375
5.872e-04,-0.00497109,-0.001
5.880e-04,-0.00505,-0.00110938
5.888e-04,-0.00497109,-0.001
5.896e-04,-0.00497109,-0.001
5.904e-04,-0.00505,-0.00103125
5.912e-04,-0.00512891,-0.00101563
5.920e-04,-0.00520781,-0.00103125
5.928e-04,-0.00520781,-0.0010625
5.936e-04,-0.00536562,-0.00103125
5.944e-04,-0.00528672,-0.00101563
5.952e-04,-0.00536562,-0.00101563
5.960e-04,-0.00512891,-0.00115625
5.968e-04,-0.00505,-0.00103125
5.976e-04,-0.00512891,-0.000984375
5.984e-04,-0.00497109,-0.00101563
5.992e-04,-0.00505,-0.00103125
6.000e-04,-0.00512891,-0.0010625
6.008e-04,-0.00512891,-0.0010625
6.016e-04,-0.00497109,-0.00107813
6.024e-04,-0.00497109,-0.00109375
6.032e-04,-0.00512891,-0.001
6.040e-04,-0.00512891,-0.00101563
6.048e-04,-0.00512891,-0.00103125
6.056e-04,-0.00528672,-0.000984375
6.064e-04,-0.00497109,-0.00103125
6.072e-04,-0.00520781,-0.00120313
6.080e-04,-0.00497109,-0.0010625
6.088e-04,-0.00497109,-0.00123438
6.096e-04,-0.00512891,-0.00104688
6.104e-04,-0.00497109,-0.00117188
6.112e-04,-0.00528672,-0.00101563
6.120e-04,-0.00505,-0.00104688
6.128e-04,-0.00497109,-0.0010625
6.136e-04,-0.00497109,-0.00109375
6.144e-04,-0.00536562,-0.00101563
6.152e-04,-0.00520781,-0.00101563
6.160e-04,-0.00512891,-0.0010625
6.168e-04,-0.00536562,-0.00107813
6.176e-04,-0.00497109,-0.00104688
6.184e-04,-0.00528672,-0.00110938
6.192e-04,-0.00497109,-0.00107813
6.200e-04,-0.00497109,-0.00101563
6.208e-04,-0.00497109,-0.000984375
6.216e-04,-0.00497109,-0.001
6.224e-04,-0.00512891,-0.00101563
6.232e-04,-0.00505,-0.001
6.240e-04,-0.00512891,-0.000984375
6.248e-04,-0.00512891,-0.000984375
6.256e-04,-0.00512891,-0.001
6.264e-04,-0.00512891,-0.00101563
6.272e-04,-0.00512891,-0.00101563
6.280e-04,-0.00505,-0.00101563
6.288e-04,-0.00520781,-0.001
6.296e-04,-0.00512891,-0.00103125
6.304e-04,-0.00512891,-0.001
6.312e-04,-0.00520781,-0.000984375
6.320e-04,-0.00497109,-0.000984375
6.328e-04,-0.00512891,-0.0010625
6.336e-04,-0.00512891,-0.001
6.344e-04,-0.00560234,-0.00103125
6.352e-04,-0.00497109,-0.00107813
6.360e-04,-0.00505,-0.001
6.368e-04,-0.00497109,-0.00107813
6.376e-04,-0.00505,-0.00103125
6.384e-04,-0.00512891,-0.0010625
6.392e-04,-0.00512891,-0.0010625
6.400e-04,-0.00512891,-0.000984375
6.408e-04,-0.00520781,-0.00101563
6.416e-04,-0.00497109,-0.00109375
6.424e-04,-0.00528672,-0.000984375
6.432e-04,-0.00536562,-0.0010625
6.440e-04,-0.00520781,-0.000984375
6.448e-04,-0.00512891,-0.00104688
6.456e-04,-0.00512891,-0.00104688
6.464e-04,-0.00497109,-0.00103125
6.472e-04,-0.00505,-0.00109375
6.480e-04,-0.00528672,-0.00103125
6.488e-04,-0.00528672,-0.00101563
6.496e-04,-0.00528672,-0.00103125
6.504e-04,-0.00520781,-0.0010625
6.512e-04,-0.00536562,-0.00101563
6.520e-04,-0.00512891,-0.000984375
6.528e-04,-0.00520781,-0.00103125
6.536e-04,-0.00512891,-0.00101563
6.544e-04,-0.00528672,-0.001
6.552e-04,-0.00520781,-0.00114063
6.560e-04,-0.00505,-0.00104688
6.568e-04,-0.00520781,-0.00103125
6.576e-04,-0.00512891,-0.00109375
6.584e-04,-0.00544453,-0.0010625
6.592e-04,-0.00544453,-0.000984375
6.600e-04,-0.00544453,-0.001
6.608e-04,-0.00536562,-0.001
6.616e-04,-0.00512891,-0.00103125
6.624e-04,-0.00568125,-0.00103125
6.632e-04,-0.00528672,-0.00101563
6.640e-04,-0.00607578,-0.001
6.648e-04,-0.00520781,-0.001
6.656e-04,-0.00497109,-0.0010625
6.664e-04,-0.00497109,-0.00109375
6.672e-04,-0.00505,-0.000984375
6.680e-04,-0.00520781,-0.00103125
6.688e-04,-0.00497109,-0.000984375
6.696e-04,-0.00528672,-0.0011875
6.704e-04,-0.00512891,-0.00107813
6.712e-04,-0.00520781,-0.00101563
6.720e-04,-0.00512891,-0.001
6.728e-04,-0.00512891,-0.00103125
6.736e-04,-0.00512891,-0.00101563
6.744e-04,-0.00505,-0.001
6.752e-04,-0.00497109,-0.000984375
6.760e-04,-0.00497109,-0.00107813
6.768e-04,-0.00512891,-0.001125
6.776e-04,-0.00568125,-0.00107813
6.784e-04,-0.00497109,-0.00103125
6.792e-04,-0.00520781,-0.00107813
6.800e-04,-0.00497109,-0.00104688
6.808e-04,-0.00544453,-0.00109375
6.816e-04,-0.00512891,-0.00103125
6.824e-04,-0.00528672,-0.00107813
6.832e-04,-0.00536562,-0.001
6.840e-04,-0.00512891,-0.00103125
6.848e-04,-0.00512891,-0.00107813
6.856e-04,-0.00512891,-0.00101563
6.864e-04,-0.00512891,-0.00104688
6.872e-04,-0.00528672,-0.00101563
6.880e-04,-0.00528672,-0.000984375
6.888e-04,-0.00505,-0.001
6.896e-04,-0.00552344,-0.00101563
6.904e-04,-0.00552344,-0.00103125
6.912e-04,-0.00536562,-0.000984375
6.920e-04,-0.00512891,-0.00109375
6.928e-04,-0.00536562,-0.000984375
6.936e-04,-0.00505,-0.00101563
6.944e-04,-0.00520781,-0.001
6.952e-04,-0.00536562,-0.000984375
6.960e-04,-0.00528672,-0.00104688
6.968e-04,-0.00528672,-0.00101563
6.976e-04,-0.00505,-0.000984375
6.984e-04,-0.00497109,-0.000984375
6.992e-04,-0.00544453,-0.001
7.000e-04,-0.00520781,-0.000984375
7.008e-04,-0.00512891,-0.001
7.016e-04,-0.00520781,-0.00101563
7.024e-04,-0.00544453,-0.00104688
7.032e-04,-0.00599687,-0.000984375
7.040e-04,-0.00536562,-0.00109375
7.048e-04,-0.00528672,-0.0010625
7.056e-04,-0.00512891,-0.000984375
7.064e-04,-0.00528672,-0.0010625
7.072e-04,-0.00544453,-0.00103125
7.080e-04,-0.00512891,-0.000984375
7.088e-04,-0.00520781,-0.00101563
7.096e-04,-0.00497109,-0.000984375
7.104e-04,-0.00505,-0.000984375
7.112e-04,-0.00528672,-0.001
7.120e-04,-0.00512891,-0.000984375
7.128e-04,-0.00560234,-0.00101563
7.136e-04,-0.00528672,-0.00103125
7.144e-04,-0.00552344,-0.00107813
7.152e-04,-0.00505,-0.00101563
7.160e-04,-0.00512891,-0.00104688
7.168e-04,-0.00512891,-0.000984375
7.176e-04,-0.00512891,-0.000984375
7.184e-04,-0.00520781,-0.000984375
7.192e-04,-0.00520781,-0.001
7.200e-04,-0.00528672,-0.00104688
7.208e-04,-0.00552344,-0.001
7.216e-04,-0.00512891,-0.00101563
7.224e-04,-0.00520781,-0.00107813
7.232e-04,-0.00528672,-0.000984375
7.240e-04,-0.00560234,-0.001
7.248e-04,-0.00662812,-0.00107813
7.256e-04,-0.00560234,-0.001
7.264e-04,-0.00520781,-0.00103125
7.272e-04,-0.00528672,-0.00103125
7.280e-04,-0.00583906,-0.00104688
7.288e-04,-0.00576016,-0.00107813
7.296e-04,-0.00528672,-0.00103125
7.304e-04,-0.00505,-0.000984375
7.312e-04,-0.00528672,-0.00107813
7.320e-04,-0.00544453,-0.00101563
7.328e-04,-0.00528672,-0.00103125
7.336e-04,-0.00528672,-0.00101563
7.344e-04,-0.00497109,-0.000984375
7.352e-04,-0.00512891,-0.00103125
7.360e-04,-0.00512891,-0.001125
7.368e-04,-0.00560234,-0.00101563
7.376e-04,-0.00528672,-0.00101563
7.384e-04,-0.00528672,-0.000984375
7.392e-04,-0.00544453,-0.00101563
7.400e-04,-0.00544453,-0.001
7.408e-04,-0.00528672,-0.00104688
7.416e-04,-0.00505,-0.0010625
7.424e-04,-0.00512891,-0.00101563
7.432e-04,-0.00520781,-0.00104688
7.440e-04,-0.00599687,-0.00104688
7.448e-04,-0.00512891,-0.00101563
7.456e-04,-0.00528672,-0.00103125
7.464e-04,-0.00505,-0.0010625
7.472e-04,-0.00512891,-0.0010625
7.480e-04,-0.00505,-0.000984375
7.488e-04,-0.00520781,-0.001
7.496e-04,-0.00512891,-0.00101563
7.504e-04,-0.00512891,-0.00103125
7.512e-04,-0.00512891,-0.000984375
7.520e-04,-0.00512891,-0.00104688
7.528e-04,-0.00544453,-0.00110938
7.536e-04,-0.00528672,-0.000984375
7.544e-04,-0.00520781,-0.001
7.552e-04,-0.00512891,-0.00104688
7.560e-04,-0.00512891,-0.00103125
7.568e-04,-0.00497109,-0.00103125
7.576e-04,-0.00512891,-0.000984375
7.584e-04,-0.00520781,-0.000984375
7.592e-04,-0.00536562,-0.00103125
7.600e-04,-0.00512891,-0.001125
7.608e-04,-0.00576016,-0.00101563
7.616e-04,-0.00512891,-0.00109375
7.624e-04,-0.00528672,-0.00101563
7.632e-04,-0.00536562,-0.00103125
7.640e-04,-0.00528672,-0.0010625
7.648e-04,-0.00512891,-0.00101563
7.656e-04,-0.00528672,-0.001
7.664e-04,-0.00528672,-0.000984375
7.672e-04,-0.00583906,-0.00103125
7.680e-04,-0.00520781,-0.00101563
7.688e-04,-0.00528672,-0.000984375
7.696e-04,-0.00512891,-0.00104688
7.704e-04,-0.00497109,-0.000984375
7.712e-04,-0.00512891,-0.00104688
7.720e-04,-0.00599687,-0.00104688
7.728e-04,-0.00599687,-0.00104688
7.736e-04,-0.00512891,-0.00101563
7.744e-04,-0.00505,-0.000984375
7.752e-04,-0.00512891,-0.00103125
7.760e-04,-0.00544453,-0.001
7.768e-04,-0.00528672,-0.000984375
7.776e-04,-0.00497109,-0.00103125
7.784e-04,-0.00576016,-0.00103125
7.792e-04,-0.00512891,-0.001
7.800e-04,-0.00536562,-0.000984375
7.808e-04,-0.00544453,-0.00101563
7.816e-04,-0.00528672,-0.00101563
7.824e-04,-0.00505,-0.001
7.832e-04,-0.00520781,-0.001125
7.840e-04,-0.00505,-0.00101563
7.848e-04,-0.00520781,-0.00101563
7.856e-04,-0.00576016,-0.00107813
7.864e-04,-0.00512891,-0.00103125
7.872e-04,-0.00544453,-0.001
7.880e-04,-0.00520781,-0.00104688
7.888e-04,-0.00528672,-0.0010625
7.896e-04,-0.00512891,-0.00104688
7.904e-04,-0.00536562,-0.000984375
7.912e-04,-0.00552344,-0.00110938
7.920e-04,-0.00512891,-0.00103125
7.928e-04,-0.00576016,-0.00101563
7.936e-04,-0.00512891,-0.00104688
7.944e-04,-0.00536562,-0.00101563
7.952e-04,-0.00520781,-0.000984375
7.960e-04,-0.00576016,-0.00103125
7.968e-04,-0.00520781,-0.00107813
7.976e-04,-0.00512891,-0.00104688
7.984e-04,-0.00520781,-0.001
7.992e-04,-0.00528672,-0.0010625

